File: data/XRD/sample_3.xy
10.00010 626.000
10.20045 639.000
10.40080 631.000
10.60115 578.000
10.80150 573.000
11.00184 558.000
11.20219 574.000
11.40254 518.000
11.60289 536.000
11.80324 555.000
12.00359 571.000
12.20394 558.000
12.40429 595.000
12.60464 594.000
12.80499 580.000
13.00533 604.000
13.20568 532.000
13.40603 522.000
13.60638 520.000
13.80673 539.000
14.00708 601.000
14.20743 685.000
14.40778 3775.000
14.60813 658.000
14.80848 528.000
15.00882 498.000
15.20917 432.000
15.40952 478.000
15.60987 497.000
15.81022 426.000
16.01057 452.000
16.21092 455.000
16.41127 460.000
16.61162 418.000
16.81196 445.000
17.01231 484.000
17.21266 494.000
17.41301 486.000
17.61336 457.000
17.81371 443.000
18.01406 483.000
18.21441 483.000
18.41476 532.000
18.61511 477.000
18.81545 528.000
19.01580 465.000
19.21615 469.000
19.41650 507.000
19.61685 547.000
19.81720 531.000
20.01755 573.000
20.21790 616.000
20.41825 617.000
20.61859 578.000
20.81894 562.000
21.01929 587.000
21.21964 580.000
21.41999 585.000
21.62034 586.000
21.82069 566.000
22.02104 633.000
22.22139 620.000
22.42174 609.000
22.62208 662.000
22.82243 676.000
23.02278 596.000
23.22313 671.000
23.42348 630.000
23.62383 615.000
23.82418 617.000
24.02453 650.000
24.22488 659.000
24.42523 632.000
24.62557 668.000
24.82592 998.000
25.02627 743.000
25.22662 578.000
25.42697 586.000
25.62732 594.000
25.82767 541.000
26.02802 550.000
26.22837 521.000
26.42871 543.000
26.62906 555.000
26.82941 544.000
27.02976 508.000
27.23011 516.000
27.43046 486.000
27.63081 495.000
27.83116 485.000
28.03151 498.000
28.23186 469.000
28.43220 628.000
28.63255 2748.000
28.83290 1057.000
29.03325 519.000
29.23360 434.000
29.43395 436.000
29.63430 438.000
29.83465 390.000
30.03500 392.000
30.23534 424.000
30.43569 376.000
30.63604 397.000
30.83639 384.000
31.03674 361.000
31.23709 367.000
31.43744 353.000
31.63779 347.000
31.83814 338.000
32.03849 520.000
32.23883 543.000
32.43918 392.000
32.63953 319.000
32.83988 323.000
33.04023 319.000
33.24058 305.000
33.44093 292.000
33.64128 294.000
33.84163 294.000
34.04198 285.000
34.24232 283.000
34.44267 280.000
34.64302 259.000
34.84337 260.000
35.04372 279.000
35.24407 293.000
35.44442 269.000
35.64477 253.000
35.84512 237.000
36.04546 273.000
36.24581 245.000
36.44616 244.000
36.64651 253.000
36.84686 196.000
37.04721 249.000
37.24756 212.000
37.44791 226.000
37.64826 225.000
37.84861 249.000
38.04895 221.000
38.24930 215.000
38.44965 206.000
38.65000 212.000
38.85035 227.000
39.05070 202.000
39.25105 215.000
39.45140 213.000
39.65175 207.000
39.85210 206.000
40.05244 216.000
40.25279 194.000
40.45314 226.000
40.65349 240.000
40.85384 325.000
41.05419 332.000
41.25454 222.000
41.45489 208.000
41.65524 203.000
41.85558 236.000
42.05593 187.000
42.25628 225.000
42.45663 223.000
42.65698 222.000
42.85733 213.000
43.05768 215.000
43.25803 236.000
43.45838 272.000
43.65873 292.000
43.85907 219.000
44.05942 219.000
44.25977 217.000
44.46012 223.000
44.66047 219.000
44.86082 215.000
45.06117 215.000
45.26152 209.000
45.46187 171.000
45.66221 215.000
45.86256 240.000
46.06291 205.000
46.26326 223.000
46.46361 212.000
46.66396 222.000
46.86431 207.000
47.06466 206.000
47.26501 219.000
47.46536 172.000
47.66570 201.000
47.86605 189.000
48.06640 203.000
48.26675 199.000
48.46710 229.000
48.66745 203.000
48.86780 190.000
49.06815 182.000
49.26850 202.000
49.46885 211.000
49.66919 176.000
49.86954 190.000
50.06989 200.000
50.27024 199.000
50.47059 214.000
50.67094 218.000
50.87129 215.000
51.07164 207.000
51.27199 171.000
51.47233 198.000
51.67268 174.000
51.87303 190.000
52.07338 172.000
52.27373 168.000
52.47408 178.000
52.67443 170.000
52.87478 189.000
53.07513 175.000
53.27548 170.000
53.47582 177.000
53.67617 162.000
53.87652 140.000
54.07687 159.000
54.27722 160.000
54.47757 159.000
54.67792 186.000
54.87827 161.000
55.07862 169.000
55.27897 181.000
55.47931 154.000
55.67966 165.000
55.88001 167.000
56.08036 157.000
56.28071 154.000
56.48106 138.000
56.68141 145.000
56.88176 185.000
57.08211 156.000
57.28245 143.000
57.48280 172.000
57.68315 146.000
57.88350 143.000
58.08385 202.000
58.28420 162.000
58.48455 158.000
58.68490 150.000
58.88525 201.000
59.08560 212.000
59.28594 197.000
59.48629 150.000
59.68664 147.000
59.88699 154.000
59.98717 145.000