File: data/XRD/sample_5.xy
10.00010 596.000
10.20045 593.000
10.40080 557.000
10.60115 582.000
10.80150 552.000
11.00184 598.000
11.20219 551.000
11.40254 507.000
11.60289 545.000
11.80324 572.000
12.00359 558.000
12.20394 564.000
12.40429 545.000
12.60464 569.000
12.80499 537.000
13.00533 548.000
13.20568 539.000
13.40603 536.000
13.60638 516.000
13.80673 512.000
14.00708 536.000
14.20743 493.000
14.40778 536.000
14.60813 890.000
14.80848 631.000
15.00882 454.000
15.20917 466.000
15.40952 452.000
15.60987 445.000
15.81022 447.000
16.01057 487.000
16.21092 427.000
16.41127 457.000
16.61162 465.000
16.81196 450.000
17.01231 445.000
17.21266 469.000
17.41301 429.000
17.61336 416.000
17.81371 460.000
18.01406 399.000
18.21441 433.000
18.41476 464.000
18.61511 483.000
18.81545 465.000
19.01580 454.000
19.21615 502.000
19.41650 462.000
19.61685 517.000
19.81720 489.000
20.01755 534.000
20.21790 516.000
20.41825 507.000
20.61859 826.000
20.81894 1171.000
21.01929 620.000
21.21964 547.000
21.41999 566.000
21.62034 583.000
21.82069 608.000
22.02104 610.000
22.22139 628.000
22.42174 602.000
22.62208 541.000
22.82243 570.000
23.02278 642.000
23.22313 968.000
23.42348 630.000
23.62383 576.000
23.82418 581.000
24.02453 584.000
24.22488 609.000
24.42523 679.000
24.62557 555.000
24.82592 607.000
25.02627 560.000
25.22662 646.000
25.42697 1123.000
25.62732 605.000
25.82767 528.000
26.02802 553.000
26.22837 518.000
26.42871 534.000
26.62906 504.000
26.82941 518.000
27.02976 487.000
27.23011 487.000
27.43046 546.000
27.63081 477.000
27.83116 487.000
28.03151 478.000
28.23186 410.000
28.43220 457.000
28.63255 427.000
28.83290 439.000
29.03325 525.000
29.23360 841.000
29.43395 1620.000
29.63430 480.000
29.83465 446.000
30.03500 415.000
30.23534 435.000
30.43569 392.000
30.63604 371.000
30.83639 376.000
31.03674 334.000
31.23709 363.000
31.43744 322.000
31.63779 333.000
31.83814 313.000
32.03849 360.000
32.23883 351.000
32.43918 315.000
32.63953 325.000
32.83988 362.000
33.04023 462.000
33.24058 282.000
33.44093 276.000
33.64128 269.000
33.84163 278.000
34.04198 299.000
34.24232 302.000
34.44267 291.000
34.64302 297.000
34.84337 239.000
35.04372 236.000
35.24407 275.000
35.44442 244.000
35.64477 237.000
35.84512 257.000
36.04546 302.000
36.24581 339.000
36.44616 272.000
36.64651 265.000
36.84686 232.000
37.04721 230.000
37.24756 229.000
37.44791 216.000
37.64826 263.000
37.84861 208.000
38.04895 221.000
38.24930 192.000
38.44965 214.000
38.65000 218.000
38.85035 216.000
39.05070 193.000
39.25105 199.000
39.45140 213.000
39.65175 181.000
39.85210 196.000
40.05244 205.000
40.25279 190.000
40.45314 185.000
40.65349 198.000
40.85384 185.000
41.05419 221.000
41.25454 215.000
41.45489 235.000
41.65524 373.000
41.85558 264.000
42.05593 365.000
42.25628 268.000
42.45663 246.000
42.65698 227.000
42.85733 238.000
43.05768 220.000
43.25803 175.000
43.45838 307.000
43.65873 243.000
43.85907 228.000
44.05942 231.000
44.25977 219.000
44.46012 228.000
44.66047 217.000
44.86082 200.000
45.06117 214.000
45.26152 229.000
45.46187 190.000
45.66221 187.000
45.86256 205.000
46.06291 238.000
46.26326 213.000
46.46361 215.000
46.66396 206.000
46.86431 216.000
47.06466 197.000
47.26501 217.000
47.46536 210.000
47.66570 179.000
47.86605 188.000
48.06640 192.000
48.26675 207.000
48.46710 194.000
48.66745 183.000
48.86780 202.000
49.06815 187.000
49.26850 179.000
49.46885 187.000
49.66919 201.000
49.86954 162.000
50.06989 172.000
50.27024 161.000
50.47059 171.000
50.67094 195.000
50.87129 164.000
51.07164 176.000
51.27199 187.000
51.47233 166.000
51.67268 169.000
51.87303 179.000
52.07338 165.000
52.27373 201.000
52.47408 183.000
52.67443 190.000
52.87478 157.000
53.07513 165.000
53.27548 155.000
53.47582 160.000
53.67617 192.000
53.87652 146.000
54.07687 147.000
54.27722 169.000
54.47757 152.000
54.67792 156.000
54.87827 143.000
55.07862 163.000
55.27897 167.000
55.47931 165.000
55.67966 171.000
55.88001 175.000
56.08036 155.000
56.28071 182.000
56.48106 144.000
56.68141 169.000
56.88176 160.000
57.08211 139.000
57.28245 157.000
57.48280 161.000
57.68315 163.000
57.88350 176.000
58.08385 172.000
58.28420 162.000
58.48455 145.000
58.68490 177.000
58.88525 163.000
59.08560 148.000
59.28594 150.000
59.48629 166.000
59.68664 159.000
59.88699 167.000
59.98717 165.000