File: data/XRD/sample_1.xy
10.00010 376.000
10.20045 406.000
10.40080 358.000
10.60115 408.000
10.80150 383.000
11.00184 364.000
11.20219 324.000
11.40254 359.000
11.60289 392.000
11.80324 372.000
12.00359 342.000
12.20394 385.000
12.40429 353.000
12.60464 361.000
12.80499 381.000
13.00533 358.000
13.20568 348.000
13.40603 351.000
13.60638 336.000
13.80673 399.000
14.00708 405.000
14.20743 1666.000
14.40778 764.000
14.60813 370.000
14.80848 359.000
15.00882 340.000
15.20917 346.000
15.40952 297.000
15.60987 293.000
15.81022 318.000
16.01057 326.000
16.21092 295.000
16.41127 295.000
16.61162 269.000
16.81196 285.000
17.01231 298.000
17.21266 284.000
17.41301 254.000
17.61336 298.000
17.81371 300.000
18.01406 273.000
18.21441 291.000
18.41476 295.000
18.61511 320.000
18.81545 327.000
19.01580 321.000
19.21615 322.000
19.41650 321.000
19.61685 344.000
19.81720 312.000
20.01755 377.000
20.21790 378.000
20.41825 405.000
20.61859 376.000
20.81894 407.000
21.01929 375.000
21.21964 404.000
21.41999 382.000
21.62034 378.000
21.82069 416.000
22.02104 466.000
22.22139 373.000
22.42174 442.000
22.62208 410.000
22.82243 443.000
23.02278 456.000
23.22313 431.000
23.42348 404.000
23.62383 434.000
23.82418 451.000
24.02453 425.000
24.22488 431.000
24.42523 426.000
24.62557 747.000
24.82592 384.000
25.02627 421.000
25.22662 377.000
25.42697 383.000
25.62732 378.000
25.82767 368.000
26.02802 350.000
26.22837 374.000
26.42871 361.000
26.62906 334.000
26.82941 355.000
27.02976 330.000
27.23011 334.000
27.43046 327.000
27.63081 322.000
27.83116 319.000
28.03151 343.000
28.23186 445.000
28.43220 1516.000
28.63255 633.000
28.83290 339.000
29.03325 322.000
29.23360 292.000
29.43395 265.000
29.63430 257.000
29.83465 279.000
30.03500 281.000
30.23534 232.000
30.43569 262.000
30.63604 236.000
30.83639 268.000
31.03674 232.000
31.23709 254.000
31.43744 249.000
31.63779 234.000
31.83814 460.000
32.03849 260.000
32.23883 208.000
32.43918 215.000
32.63953 227.000
32.83988 201.000
33.04023 237.000
33.24058 206.000
33.44093 200.000
33.64128 200.000
33.84163 180.000
34.04198 204.000
34.24232 193.000
34.44267 182.000
34.64302 193.000
34.84337 191.000
35.04372 171.000
35.24407 179.000
35.44442 163.000
35.64477 166.000
35.84512 185.000
36.04546 163.000
36.24581 160.000
36.44616 161.000
36.64651 193.000
36.84686 182.000
37.04721 161.000
37.24756 175.000
37.44791 136.000
37.64826 172.000
37.84861 133.000
38.04895 151.000
38.24930 135.000
38.44965 149.000
38.65000 139.000
38.85035 132.000
39.05070 138.000
39.25105 134.000
39.45140 120.000
39.65175 142.000
39.85210 137.000
40.05244 132.000
40.25279 144.000
40.45314 169.000
40.65349 325.000
40.85384 154.000
41.05419 121.000
41.25454 133.000
41.45489 158.000
41.65524 137.000
41.85558 143.000
42.05593 153.000
42.25628 180.000
42.45663 119.000
42.65698 152.000
42.85733 134.000
43.05768 198.000
43.25803 200.000
43.45838 167.000
43.65873 145.000
43.85907 136.000
44.05942 137.000
44.25977 155.000
44.46012 136.000
44.66047 145.000
44.86082 143.000
45.06117 134.000
45.26152 138.000
45.46187 144.000
45.66221 136.000
45.86256 118.000
46.06291 140.000
46.26326 129.000
46.46361 113.000
46.66396 138.000
46.86431 132.000
47.06466 130.000
47.26501 126.000
47.46536 143.000
47.66570 132.000
47.86605 144.000
48.06640 114.000
48.26675 140.000
48.46710 129.000
48.66745 122.000
48.86780 138.000
49.06815 121.000
49.26850 135.000
49.46885 132.000
49.66919 122.000
49.86954 131.000
50.06989 129.000
50.27024 123.000
50.47059 114.000
50.67094 119.000
50.87129 124.000
51.07164 119.000
51.27199 115.000
51.47233 117.000
51.67268 105.000
51.87303 122.000
52.07338 103.000
52.27373 113.000
52.47408 128.000
52.67443 117.000
52.87478 108.000
53.07513 106.000
53.27548 116.000
53.47582 109.000
53.67617 115.000
53.87652 127.000
54.07687 109.000
54.27722 104.000
54.47757 118.000
54.67792 107.000
54.87827 117.000
55.07862 115.000
55.27897 105.000
55.47931 102.000
55.67966 116.000
55.88001 105.000
56.08036 115.000
56.28071 105.000
56.48106 96.000
56.68141 99.000
56.88176 115.000
57.08211 110.000
57.28245 105.000
57.48280 74.000
57.68315 115.000
57.88350 108.000
58.08385 96.000
58.28420 99.000
58.48455 120.000
58.68490 145.000
58.88525 130.000
59.08560 119.000
59.28594 96.000
59.48629 106.000
59.68664 107.000
59.88699 105.000
59.98717 105.000