File: data/XRD/sample_6.xy
10.00010 600.000
10.20045 585.000
10.40080 551.000
10.60115 564.000
10.80150 549.000
11.00184 553.000
11.20219 539.000
11.40254 578.000
11.60289 533.000
11.80324 522.000
12.00359 577.000
12.20394 530.000
12.40429 546.000
12.60464 563.000
12.80499 622.000
13.00533 572.000
13.20568 561.000
13.40603 489.000
13.60638 536.000
13.80673 499.000
14.00708 532.000
14.20743 831.000
14.40778 1084.000
14.60813 504.000
14.80848 469.000
15.00882 479.000
15.20917 458.000
15.40952 474.000
15.60987 436.000
15.81022 485.000
16.01057 446.000
16.21092 426.000
16.41127 427.000
16.61162 439.000
16.81196 446.000
17.01231 447.000
17.21266 468.000
17.41301 434.000
17.61336 442.000
17.81371 460.000
18.01406 436.000
18.21441 439.000
18.41476 481.000
18.61511 531.000
18.81545 507.000
19.01580 507.000
19.21615 468.000
19.41650 486.000
19.61685 518.000
19.81720 496.000
20.01755 561.000
20.21790 629.000
20.41825 548.000
20.61859 562.000
20.81894 588.000
21.01929 586.000
21.21964 610.000
21.41999 625.000
21.62034 571.000
21.82069 574.000
22.02104 632.000
22.22139 601.000
22.42174 570.000
22.62208 630.000
22.82243 596.000
23.02278 573.000
23.22313 599.000
23.42348 630.000
23.62383 604.000
23.82418 593.000
24.02453 628.000
24.22488 643.000
24.42523 615.000
24.62557 736.000
24.82592 664.000
25.02627 609.000
25.22662 605.000
25.42697 559.000
25.62732 575.000
25.82767 567.000
26.02802 568.000
26.22837 542.000
26.42871 556.000
26.62906 504.000
26.82941 502.000
27.02976 524.000
27.23011 515.000
27.43046 494.000
27.63081 491.000
27.83116 461.000
28.03151 463.000
28.23186 500.000
28.43220 600.000
28.63255 1389.000
28.83290 506.000
29.03325 420.000
29.23360 444.000
29.43395 406.000
29.63430 395.000
29.83465 375.000
30.03500 387.000
30.23534 390.000
30.43569 387.000
30.63604 355.000
30.83639 381.000
31.03674 384.000
31.23709 393.000
31.43744 356.000
31.63779 342.000
31.83814 397.000
32.03849 604.000
32.23883 369.000
32.43918 335.000
32.63953 309.000
32.83988 323.000
33.04023 332.000
33.24058 320.000
33.44093 267.000
33.64128 302.000
33.84163 284.000
34.04198 291.000
34.24232 251.000
34.44267 263.000
34.64302 287.000
34.84337 265.000
35.04372 269.000
35.24407 278.000
35.44442 259.000
35.64477 242.000
35.84512 216.000
36.04546 256.000
36.24581 238.000
36.44616 228.000
36.64651 230.000
36.84686 255.000
37.04721 229.000
37.24756 233.000
37.44791 210.000
37.64826 245.000
37.84861 228.000
38.04895 227.000
38.24930 207.000
38.44965 214.000
38.65000 222.000
38.85035 215.000
39.05070 218.000
39.25105 224.000
39.45140 198.000
39.65175 225.000
39.85210 193.000
40.05244 205.000
40.25279 222.000
40.45314 275.000
40.65349 676.000
40.85384 301.000
41.05419 258.000
41.25454 216.000
41.45489 223.000
41.65524 229.000
41.85558 223.000
42.05593 226.000
42.25628 198.000
42.45663 231.000
42.65698 229.000
42.85733 219.000
43.05768 249.000
43.25803 367.000
43.45838 218.000
43.65873 203.000
43.85907 223.000
44.05942 221.000
44.25977 231.000
44.46012 192.000
44.66047 215.000
44.86082 216.000
45.06117 190.000
45.26152 197.000
45.46187 213.000
45.66221 226.000
45.86256 207.000
46.06291 190.000
46.26326 188.000
46.46361 192.000
46.66396 179.000
46.86431 202.000
47.06466 193.000
47.26501 196.000
47.46536 207.000
47.66570 211.000
47.86605 206.000
48.06640 204.000
48.26675 192.000
48.46710 192.000
48.66745 198.000
48.86780 207.000
49.06815 180.000
49.26850 187.000
49.46885 183.000
49.66919 184.000
49.86954 187.000
50.06989 181.000
50.27024 202.000
50.47059 206.000
50.67094 203.000
50.87129 156.000
51.07164 163.000
51.27199 184.000
51.47233 172.000
51.67268 175.000
51.87303 163.000
52.07338 204.000
52.27373 183.000
52.47408 200.000
52.67443 166.000
52.87478 157.000
53.07513 164.000
53.27548 157.000
53.47582 184.000
53.67617 195.000
53.87652 159.000
54.07687 172.000
54.27722 161.000
54.47757 173.000
54.67792 152.000
54.87827 169.000
55.07862 164.000
55.27897 150.000
55.47931 182.000
55.67966 158.000
55.88001 158.000
56.08036 157.000
56.28071 170.000
56.48106 148.000
56.68141 169.000
56.88176 176.000
57.08211 169.000
57.28245 145.000
57.48280 159.000
57.68315 151.000
57.88350 178.000
58.08385 171.000
58.28420 155.000
58.48455 175.000
58.68490 174.000
58.88525 177.000
59.08560 164.000
59.28594 159.000
59.48629 159.000
59.68664 153.000
59.88699 157.000
59.98717 163.000