File: data/XRD/sample_4.xy
10.00010 595.000
10.20045 586.000
10.40080 578.000
10.60115 616.000
10.80150 562.000
11.00184 579.000
11.20219 542.000
11.40254 575.000
11.60289 577.000
11.80324 582.000
12.00359 529.000
12.20394 576.000
12.40429 568.000
12.60464 623.000
12.80499 701.000
13.00533 1615.000
13.20568 844.000
13.40603 609.000
13.60638 567.000
13.80673 521.000
14.00708 535.000
14.20743 543.000
14.40778 1814.000
14.60813 685.000
14.80848 492.000
15.00882 485.000
15.20917 487.000
15.40952 498.000
15.60987 472.000
15.81022 480.000
16.01057 432.000
16.21092 444.000
16.41127 447.000
16.61162 463.000
16.81196 476.000
17.01231 462.000
17.21266 421.000
17.41301 428.000
17.61336 451.000
17.81371 429.000
18.01406 463.000
18.21441 473.000
18.41476 449.000
18.61511 476.000
18.81545 506.000
19.01580 501.000
19.21615 465.000
19.41650 522.000
19.61685 495.000
19.81720 494.000
20.01755 547.000
20.21790 564.000
20.41825 632.000
20.61859 589.000
20.81894 550.000
21.01929 596.000
21.21964 599.000
21.41999 539.000
21.62034 568.000
21.82069 580.000
22.02104 611.000
22.22139 647.000
22.42174 595.000
22.62208 622.000
22.82243 693.000
23.02278 617.000
23.22313 623.000
23.42348 607.000
23.62383 616.000
23.82418 627.000
24.02453 630.000
24.22488 612.000
24.42523 636.000
24.62557 613.000
24.82592 681.000
25.02627 903.000
25.22662 642.000
25.42697 605.000
25.62732 622.000
25.82767 807.000
26.02802 697.000
26.22837 604.000
26.42871 516.000
26.62906 563.000
26.82941 512.000
27.02976 483.000
27.23011 487.000
27.43046 480.000
27.63081 454.000
27.83116 484.000
28.03151 425.000
28.23186 479.000
28.43220 457.000
28.63255 687.000
28.83290 1633.000
29.03325 829.000
29.23360 438.000
29.43395 412.000
29.63430 403.000
29.83465 414.000
30.03500 364.000
30.23534 358.000
30.43569 371.000
30.63604 372.000
30.83639 358.000
31.03674 343.000
31.23709 322.000
31.43744 352.000
31.63779 336.000
31.83814 321.000
32.03849 376.000
32.23883 472.000
32.43918 502.000
32.63953 319.000
32.83988 300.000
33.04023 296.000
33.24058 278.000
33.44093 316.000
33.64128 305.000
33.84163 305.000
34.04198 272.000
34.24232 261.000
34.44267 286.000
34.64302 271.000
34.84337 250.000
35.04372 270.000
35.24407 235.000
35.44442 264.000
35.64477 275.000
35.84512 226.000
36.04546 254.000
36.24581 219.000
36.44616 234.000
36.64651 257.000
36.84686 262.000
37.04721 242.000
37.24756 234.000
37.44791 208.000
37.64826 216.000
37.84861 228.000
38.04895 226.000
38.24930 223.000
38.44965 220.000
38.65000 197.000
38.85035 293.000
39.05070 406.000
39.25105 365.000
39.45140 231.000
39.65175 210.000
39.85210 218.000
40.05244 236.000
40.25279 200.000
40.45314 207.000
40.65349 225.000
40.85384 235.000
41.05419 302.000
41.25454 341.000
41.45489 264.000
41.65524 192.000
41.85558 207.000
42.05593 197.000
42.25628 225.000
42.45663 240.000
42.65698 248.000
42.85733 219.000
43.05768 210.000
43.25803 205.000
43.45838 241.000
43.65873 240.000
43.85907 242.000
44.05942 225.000
44.25977 218.000
44.46012 206.000
44.66047 216.000
44.86082 210.000
45.06117 198.000
45.26152 221.000
45.46187 230.000
45.66221 201.000
45.86256 200.000
46.06291 189.000
46.26326 208.000
46.46361 217.000
46.66396 226.000
46.86431 189.000
47.06466 213.000
47.26501 195.000
47.46536 219.000
47.66570 177.000
47.86605 178.000
48.06640 170.000
48.26675 183.000
48.46710 210.000
48.66745 200.000
48.86780 217.000
49.06815 191.000
49.26850 187.000
49.46885 195.000
49.66919 178.000
49.86954 160.000
50.06989 188.000
50.27024 188.000
50.47059 188.000
50.67094 199.000
50.87129 219.000
51.07164 206.000
51.27199 195.000
51.47233 200.000
51.67268 199.000
51.87303 203.000
52.07338 162.000
52.27373 170.000
52.47408 206.000
52.67443 282.000
52.87478 360.000
53.07513 244.000
53.27548 192.000
53.47582 171.000
53.67617 169.000
53.87652 163.000
54.07687 163.000
54.27722 182.000
54.47757 163.000
54.67792 176.000
54.87827 161.000
55.07862 157.000
55.27897 154.000
55.47931 151.000
55.67966 148.000
55.88001 171.000
56.08036 144.000
56.28071 169.000
56.48106 176.000
56.68141 171.000
56.88176 160.000
57.08211 156.000
57.28245 179.000
57.48280 143.000
57.68315 172.000
57.88350 159.000
58.08385 180.000
58.28420 142.000
58.48455 138.000
58.68490 162.000
58.88525 152.000
59.08560 185.000
59.28594 173.000
59.48629 161.000
59.68664 164.000
59.88699 133.000
59.98717 149.000