File: data/XRD/sample_2_repeat.xy
10.00010 577.000
10.20045 560.000
10.40080 596.000
10.60115 545.000
10.80150 554.000
11.00184 501.000
11.20219 537.000
11.40254 525.000
11.60289 577.000
11.80324 555.000
12.00359 566.000
12.20394 579.000
12.40429 609.000
12.60464 626.000
12.80499 1105.000
13.00533 1723.000
13.20568 962.000
13.40603 592.000
13.60638 515.000
13.80673 523.000
14.00708 490.000
14.20743 472.000
14.40778 517.000
14.60813 1149.000
14.80848 555.000
15.00882 441.000
15.20917 456.000
15.40952 458.000
15.60987 426.000
15.81022 472.000
16.01057 448.000
16.21092 418.000
16.41127 467.000
16.61162 425.000
16.81196 434.000
17.01231 443.000
17.21266 418.000
17.41301 432.000
17.61336 414.000
17.81371 451.000
18.01406 447.000
18.21441 423.000
18.41476 444.000
18.61511 474.000
18.81545 462.000
19.01580 452.000
19.21615 443.000
19.41650 465.000
19.61685 461.000
19.81720 493.000
20.01755 541.000
20.21790 502.000
20.41825 576.000
20.61859 900.000
20.81894 817.000
21.01929 605.000
21.21964 606.000
21.41999 603.000
21.62034 612.000
21.82069 609.000
22.02104 571.000
22.22139 615.000
22.42174 591.000
22.62208 640.000
22.82243 663.000
23.02278 707.000
23.22313 714.000
23.42348 632.000
23.62383 601.000
23.82418 642.000
24.02453 622.000
24.22488 590.000
24.42523 606.000
24.62557 590.000
24.82592 607.000
25.02627 578.000
25.22662 923.000
25.42697 629.000
25.62732 604.000
25.82767 754.000
26.02802 682.000
26.22837 567.000
26.42871 494.000
26.62906 528.000
26.82941 514.000
27.02976 479.000
27.23011 623.000
27.43046 522.000
27.63081 465.000
27.83116 469.000
28.03151 451.000
28.23186 467.000
28.43220 447.000
28.63255 434.000
28.83290 457.000
29.03325 595.000
29.23360 1857.000
29.43395 630.000
29.63430 409.000
29.83465 380.000
30.03500 393.000
30.23534 385.000
30.43569 376.000
30.63604 352.000
30.83639 310.000
31.03674 363.000
31.23709 299.000
31.43744 359.000
31.63779 325.000
31.83814 337.000
32.03849 343.000
32.23883 373.000
32.43918 336.000
32.63953 456.000
32.83988 515.000
33.04023 328.000
33.24058 309.000
33.44093 296.000
33.64128 293.000
33.84163 287.000
34.04198 283.000
34.24232 224.000
34.44267 269.000
34.64302 272.000
34.84337 302.000
35.04372 262.000
35.24407 261.000
35.44442 272.000
35.64477 269.000
35.84512 313.000
36.04546 379.000
36.24581 271.000
36.44616 219.000
36.64651 246.000
36.84686 219.000
37.04721 228.000
37.24756 235.000
37.44791 254.000
37.64826 204.000
37.84861 212.000
38.04895 224.000
38.24930 252.000
38.44965 208.000
38.65000 244.000
38.85035 372.000
39.05070 463.000
39.25105 339.000
39.45140 221.000
39.65175 219.000
39.85210 236.000
40.05244 237.000
40.25279 208.000
40.45314 219.000
40.65349 224.000
40.85384 217.000
41.05419 212.000
41.25454 223.000
41.45489 339.000
41.65524 403.000
41.85558 356.000
42.05593 286.000
42.25628 228.000
42.45663 188.000
42.65698 210.000
42.85733 210.000
43.05768 250.000
43.25803 271.000
43.45838 238.000
43.65873 195.000
43.85907 208.000
44.05942 244.000
44.25977 243.000
44.46012 205.000
44.66047 226.000
44.86082 232.000
45.06117 218.000
45.26152 205.000
45.46187 210.000
45.66221 207.000
45.86256 212.000
46.06291 187.000
46.26326 199.000
46.46361 168.000
46.66396 220.000
46.86431 239.000
47.06466 238.000
47.26501 209.000
47.46536 210.000
47.66570 211.000
47.86605 205.000
48.06640 194.000
48.26675 196.000
48.46710 194.000
48.66745 213.000
48.86780 200.000
49.06815 208.000
49.26850 173.000
49.46885 151.000
49.66919 196.000
49.86954 186.000
50.06989 192.000
50.27024 195.000
50.47059 184.000
50.67094 185.000
50.87129 167.000
51.07164 150.000
51.27199 183.000
51.47233 203.000
51.67268 179.000
51.87303 200.000
52.07338 193.000
52.27373 206.000
52.47408 264.000
52.67443 369.000
52.87478 373.000
53.07513 258.000
53.27548 206.000
53.47582 200.000
53.67617 196.000
53.87652 152.000
54.07687 175.000
54.27722 183.000
54.47757 146.000
54.67792 175.000
54.87827 198.000
55.07862 163.000
55.27897 179.000
55.47931 174.000
55.67966 162.000
55.88001 169.000
56.08036 160.000
56.28071 180.000
56.48106 141.000
56.68141 156.000
56.88176 138.000
57.08211 163.000
57.28245 140.000
57.48280 135.000
57.68315 158.000
57.88350 160.000
58.08385 163.000
58.28420 166.000
58.48455 145.000
58.68490 150.000
58.88525 159.000
59.08560 130.000
59.28594 159.000
59.48629 176.000
59.68664 178.000
59.88699 151.000
59.98717 163.000